Experiment	Frequency Sweep	
Date	30.04.2017 16:50:36	
User		
f_res (Hz)	31692.5183	
Q	17681	
Phase (deg)	-59.97	
Amp/Exc (nm/mV)	0.319250	
Number of points	512	
Fit length	11	

[DATA]
Frequency Shift (Hz)	Center Frequency (Hz)	Amplitude (m)	Phase (deg)
-19.1000E+0	31.6915E+3	5.45461E-12	-10.7601E+0
-19.0252E+0	31.6915E+3	146.434E-12	91.5896E+0
-18.9505E+0	31.6915E+3	140.786E-12	91.3980E+0
-18.8757E+0	31.6915E+3	142.019E-12	90.9100E+0
-18.8010E+0	31.6915E+3	143.469E-12	91.0998E+0
-18.7262E+0	31.6915E+3	143.456E-12	91.4872E+0
-18.6515E+0	31.6915E+3	144.711E-12	91.3708E+0
-18.5767E+0	31.6915E+3	144.916E-12	91.0860E+0
-18.5020E+0	31.6915E+3	144.939E-12	91.0769E+0
-18.4272E+0	31.6915E+3	146.579E-12	90.9306E+0
-18.3525E+0	31.6915E+3	147.021E-12	91.3834E+0
-18.2777E+0	31.6915E+3	146.444E-12	91.1541E+0
-18.2029E+0	31.6915E+3	146.939E-12	91.0917E+0
-18.1282E+0	31.6915E+3	147.871E-12	91.1274E+0
-18.0534E+0	31.6915E+3	148.470E-12	91.3649E+0
-17.9787E+0	31.6915E+3	150.384E-12	91.3276E+0
-17.9039E+0	31.6915E+3	149.318E-12	91.1904E+0
-17.8292E+0	31.6915E+3	150.262E-12	91.3424E+0
-17.7544E+0	31.6915E+3	149.845E-12	90.9920E+0
-17.6797E+0	31.6915E+3	152.177E-12	91.3720E+0
-17.6049E+0	31.6915E+3	151.498E-12	91.3562E+0
-17.5302E+0	31.6915E+3	152.328E-12	90.9384E+0
-17.4554E+0	31.6915E+3	153.161E-12	91.0029E+0
-17.3806E+0	31.6915E+3	153.078E-12	91.4077E+0
-17.3059E+0	31.6915E+3	154.056E-12	91.1941E+0
-17.2311E+0	31.6915E+3	153.737E-12	90.8482E+0
-17.1564E+0	31.6915E+3	155.765E-12	91.0921E+0
-17.0816E+0	31.6915E+3	155.444E-12	91.3901E+0
-17.0069E+0	31.6915E+3	156.659E-12	91.2380E+0
-16.9321E+0	31.6915E+3	158.074E-12	90.8036E+0
-16.8574E+0	31.6915E+3	157.900E-12	90.7540E+0
-16.7826E+0	31.6915E+3	157.204E-12	91.0353E+0
-16.7078E+0	31.6915E+3	158.999E-12	90.9028E+0
-16.6331E+0	31.6915E+3	159.920E-12	91.3092E+0
-16.5583E+0	31.6915E+3	160.359E-12	90.5992E+0
-16.4836E+0	31.6915E+3	160.876E-12	90.8533E+0
-16.4088E+0	31.6915E+3	162.610E-12	90.6382E+0
-16.3341E+0	31.6915E+3	161.783E-12	90.9509E+0
-16.2593E+0	31.6915E+3	162.555E-12	90.8936E+0
-16.1846E+0	31.6915E+3	163.952E-12	90.7413E+0
-16.1098E+0	31.6915E+3	164.425E-12	91.1208E+0
-16.0351E+0	31.6915E+3	165.182E-12	90.5107E+0
-15.9603E+0	31.6915E+3	164.724E-12	91.2681E+0
-15.8855E+0	31.6915E+3	166.338E-12	90.8782E+0
-15.8108E+0	31.6915E+3	166.164E-12	91.0781E+0
-15.7360E+0	31.6915E+3	168.292E-12	90.6977E+0
-15.6613E+0	31.6915E+3	167.993E-12	90.4055E+0
-15.5865E+0	31.6915E+3	169.470E-12	90.7689E+0
-15.5118E+0	31.6915E+3	170.329E-12	90.8460E+0
-15.4370E+0	31.6915E+3	169.419E-12	90.6651E+0
-15.3623E+0	31.6915E+3	171.240E-12	90.9010E+0
-15.2875E+0	31.6915E+3	171.413E-12	90.7464E+0
-15.2127E+0	31.6915E+3	174.448E-12	90.5440E+0
-15.1380E+0	31.6915E+3	174.418E-12	90.8886E+0
-15.0632E+0	31.6915E+3	175.043E-12	91.1413E+0
-14.9885E+0	31.6915E+3	176.096E-12	91.3008E+0
-14.9137E+0	31.6915E+3	176.529E-12	90.7653E+0
-14.8390E+0	31.6915E+3	178.629E-12	90.5937E+0
-14.7642E+0	31.6915E+3	178.308E-12	90.2337E+0
-14.6895E+0	31.6915E+3	179.102E-12	90.3259E+0
-14.6147E+0	31.6915E+3	180.181E-12	90.9034E+0
-14.5399E+0	31.6915E+3	180.515E-12	90.8392E+0
-14.4652E+0	31.6915E+3	182.760E-12	90.4691E+0
-14.3904E+0	31.6915E+3	183.485E-12	90.4409E+0
-14.3157E+0	31.6915E+3	184.276E-12	90.4049E+0
-14.2409E+0	31.6915E+3	185.402E-12	90.6537E+0
-14.1662E+0	31.6915E+3	185.565E-12	90.3473E+0
-14.0914E+0	31.6915E+3	186.357E-12	90.6868E+0
-14.0167E+0	31.6915E+3	187.939E-12	90.8627E+0
-13.9419E+0	31.6915E+3	188.947E-12	90.3372E+0
-13.8671E+0	31.6915E+3	187.810E-12	90.4002E+0
-13.7924E+0	31.6915E+3	189.709E-12	90.8347E+0
-13.7176E+0	31.6915E+3	191.081E-12	90.8312E+0
-13.6429E+0	31.6915E+3	193.819E-12	90.9546E+0
-13.5681E+0	31.6915E+3	193.024E-12	90.5155E+0
-13.4934E+0	31.6915E+3	194.293E-12	90.5563E+0
-13.4186E+0	31.6915E+3	195.727E-12	90.3915E+0
-13.3439E+0	31.6915E+3	195.782E-12	90.4478E+0
-13.2691E+0	31.6915E+3	198.022E-12	90.5112E+0
-13.1943E+0	31.6915E+3	197.510E-12	90.4484E+0
-13.1196E+0	31.6915E+3	199.369E-12	90.7288E+0
-13.0448E+0	31.6915E+3	201.186E-12	90.5289E+0
-12.9701E+0	31.6915E+3	200.655E-12	90.5783E+0
-12.8953E+0	31.6915E+3	201.281E-12	90.4581E+0
-12.8206E+0	31.6915E+3	203.591E-12	90.6805E+0
-12.7458E+0	31.6915E+3	203.682E-12	90.7572E+0
-12.6711E+0	31.6915E+3	205.478E-12	90.7359E+0
-12.5963E+0	31.6915E+3	207.613E-12	90.6981E+0
-12.5215E+0	31.6915E+3	208.873E-12	90.8157E+0
-12.4468E+0	31.6915E+3	209.264E-12	90.2394E+0
-12.3720E+0	31.6915E+3	210.598E-12	90.3256E+0
-12.2973E+0	31.6915E+3	212.730E-12	90.2263E+0
-12.2225E+0	31.6915E+3	213.361E-12	90.5550E+0
-12.1478E+0	31.6915E+3	213.873E-12	90.5365E+0
-12.0730E+0	31.6915E+3	215.107E-12	90.0108E+0
-11.9983E+0	31.6915E+3	216.641E-12	90.1215E+0
-11.9235E+0	31.6915E+3	219.370E-12	90.5280E+0
-11.8487E+0	31.6915E+3	219.006E-12	89.9416E+0
-11.7740E+0	31.6915E+3	221.674E-12	90.2362E+0
-11.6992E+0	31.6915E+3	221.522E-12	90.1378E+0
-11.6245E+0	31.6915E+3	223.870E-12	90.1395E+0
-11.5497E+0	31.6915E+3	224.296E-12	89.9621E+0
-11.4750E+0	31.6915E+3	225.879E-12	89.9274E+0
-11.4002E+0	31.6915E+3	227.838E-12	89.9916E+0
-11.3254E+0	31.6915E+3	227.682E-12	90.0573E+0
-11.2507E+0	31.6915E+3	229.070E-12	89.7972E+0
-11.1759E+0	31.6915E+3	231.185E-12	90.1119E+0
-11.1012E+0	31.6915E+3	233.248E-12	90.0766E+0
-11.0264E+0	31.6915E+3	234.690E-12	89.9827E+0
-10.9517E+0	31.6915E+3	235.625E-12	90.3238E+0
-10.8769E+0	31.6915E+3	238.507E-12	89.9559E+0
-10.8022E+0	31.6915E+3	240.141E-12	90.2028E+0
-10.7274E+0	31.6915E+3	240.966E-12	90.0283E+0
-10.6526E+0	31.6915E+3	243.228E-12	90.1120E+0
-10.5779E+0	31.6915E+3	244.833E-12	90.2220E+0
-10.5031E+0	31.6915E+3	249.474E-12	89.9934E+0
-10.4284E+0	31.6915E+3	248.520E-12	89.4208E+0
-10.3536E+0	31.6915E+3	251.076E-12	90.1503E+0
-10.2789E+0	31.6915E+3	250.496E-12	89.7108E+0
-10.2041E+0	31.6915E+3	253.793E-12	89.1408E+0
-10.1294E+0	31.6915E+3	253.612E-12	89.9673E+0
-10.0546E+0	31.6915E+3	259.067E-12	89.5892E+0
-9.97985E+0	31.6915E+3	257.131E-12	90.0402E+0
-9.90509E+0	31.6915E+3	259.335E-12	89.5209E+0
-9.83034E+0	31.6915E+3	260.674E-12	89.8329E+0
-9.75558E+0	31.6915E+3	264.307E-12	89.4557E+0
-9.68083E+0	31.6915E+3	264.134E-12	89.4944E+0
-9.60607E+0	31.6915E+3	268.215E-12	89.6158E+0
-9.53131E+0	31.6915E+3	269.787E-12	89.5038E+0
-9.45656E+0	31.6915E+3	271.029E-12	89.9147E+0
-9.38180E+0	31.6915E+3	274.045E-12	89.6119E+0
-9.30705E+0	31.6915E+3	275.004E-12	89.1417E+0
-9.23229E+0	31.6915E+3	279.585E-12	89.3244E+0
-9.15754E+0	31.6915E+3	279.862E-12	89.5211E+0
-9.08278E+0	31.6915E+3	282.028E-12	89.4227E+0
-9.00802E+0	31.6915E+3	283.202E-12	89.1798E+0
-8.93327E+0	31.6915E+3	284.001E-12	89.2470E+0
-8.85851E+0	31.6915E+3	287.075E-12	89.2571E+0
-8.78376E+0	31.6915E+3	291.123E-12	88.9716E+0
-8.70900E+0	31.6915E+3	291.612E-12	89.0292E+0
-8.63425E+0	31.6915E+3	293.644E-12	89.3272E+0
-8.55949E+0	31.6915E+3	298.275E-12	89.2935E+0
-8.48473E+0	31.6915E+3	298.146E-12	88.7759E+0
-8.40998E+0	31.6915E+3	298.613E-12	88.6468E+0
-8.33522E+0	31.6915E+3	302.674E-12	88.5130E+0
-8.26047E+0	31.6915E+3	303.362E-12	88.4484E+0
-8.18571E+0	31.6915E+3	309.671E-12	88.1691E+0
-8.11096E+0	31.6915E+3	307.502E-12	88.8524E+0
-8.03620E+0	31.6915E+3	311.377E-12	88.8191E+0
-7.96145E+0	31.6915E+3	313.568E-12	88.4548E+0
-7.88669E+0	31.6915E+3	315.494E-12	87.9050E+0
-7.81193E+0	31.6915E+3	319.379E-12	87.6509E+0
-7.73718E+0	31.6915E+3	323.859E-12	87.9930E+0
-7.66242E+0	31.6915E+3	328.442E-12	87.8356E+0
-7.58767E+0	31.6915E+3	330.904E-12	88.2978E+0
-7.51291E+0	31.6915E+3	335.017E-12	87.5243E+0
-7.43816E+0	31.6915E+3	338.140E-12	87.6817E+0
-7.36340E+0	31.6915E+3	339.803E-12	87.5542E+0
-7.28865E+0	31.6915E+3	342.552E-12	87.7557E+0
-7.21389E+0	31.6915E+3	345.249E-12	87.3461E+0
-7.13914E+0	31.6915E+3	348.377E-12	87.6923E+0
-7.06438E+0	31.6915E+3	349.538E-12	87.2869E+0
-6.98963E+0	31.6915E+3	353.860E-12	87.2764E+0
-6.91487E+0	31.6915E+3	359.939E-12	87.3720E+0
-6.84012E+0	31.6915E+3	361.469E-12	87.0317E+0
-6.76536E+0	31.6915E+3	369.001E-12	87.2354E+0
-6.69061E+0	31.6915E+3	370.835E-12	87.6958E+0
-6.61585E+0	31.6915E+3	374.945E-12	87.3450E+0
-6.54110E+0	31.6915E+3	379.086E-12	87.4081E+0
-6.46634E+0	31.6915E+3	381.038E-12	87.5797E+0
-6.39159E+0	31.6915E+3	386.884E-12	87.2659E+0
-6.31683E+0	31.6915E+3	388.749E-12	87.2200E+0
-6.24208E+0	31.6915E+3	393.608E-12	87.4495E+0
-6.16732E+0	31.6915E+3	398.541E-12	86.6021E+0
-6.09257E+0	31.6915E+3	403.728E-12	87.2307E+0
-6.01781E+0	31.6915E+3	403.472E-12	87.3575E+0
-5.94306E+0	31.6915E+3	404.813E-12	87.5203E+0
-5.86830E+0	31.6915E+3	411.657E-12	87.3936E+0
-5.79354E+0	31.6915E+3	415.625E-12	87.2791E+0
-5.71879E+0	31.6915E+3	421.290E-12	86.9899E+0
-5.64403E+0	31.6915E+3	422.902E-12	86.9743E+0
-5.56928E+0	31.6915E+3	430.171E-12	87.1055E+0
-5.49452E+0	31.6915E+3	434.450E-12	86.8285E+0
-5.41977E+0	31.6915E+3	440.151E-12	86.6452E+0
-5.34501E+0	31.6915E+3	444.040E-12	86.7883E+0
-5.27026E+0	31.6915E+3	448.314E-12	86.5466E+0
-5.19550E+0	31.6915E+3	452.018E-12	86.5272E+0
-5.12075E+0	31.6915E+3	459.446E-12	86.5705E+0
-5.04599E+0	31.6915E+3	462.915E-12	86.2169E+0
-4.97124E+0	31.6915E+3	469.524E-12	86.4104E+0
-4.89648E+0	31.6915E+3	478.356E-12	86.0916E+0
-4.82173E+0	31.6915E+3	480.032E-12	86.5458E+0
-4.74697E+0	31.6915E+3	485.283E-12	86.1283E+0
-4.67222E+0	31.6915E+3	493.558E-12	85.8203E+0
-4.59746E+0	31.6915E+3	498.151E-12	85.7212E+0
-4.52271E+0	31.6915E+3	507.121E-12	85.7044E+0
-4.44795E+0	31.6915E+3	512.323E-12	85.4364E+0
-4.37320E+0	31.6915E+3	520.287E-12	85.6937E+0
-4.29844E+0	31.6915E+3	524.361E-12	85.2035E+0
-4.22369E+0	31.6915E+3	531.355E-12	85.0619E+0
-4.14893E+0	31.6915E+3	539.699E-12	85.0085E+0
-4.07418E+0	31.6915E+3	552.366E-12	85.5925E+0
-3.99942E+0	31.6915E+3	555.213E-12	85.0129E+0
-3.92466E+0	31.6915E+3	560.166E-12	84.9488E+0
-3.84991E+0	31.6915E+3	568.690E-12	84.6447E+0
-3.77515E+0	31.6915E+3	575.141E-12	84.3210E+0
-3.70040E+0	31.6915E+3	590.514E-12	84.5271E+0
-3.62564E+0	31.6915E+3	597.882E-12	84.4341E+0
-3.55089E+0	31.6915E+3	610.137E-12	84.2886E+0
-3.47613E+0	31.6915E+3	617.492E-12	84.3435E+0
-3.40138E+0	31.6915E+3	630.527E-12	84.2356E+0
-3.32662E+0	31.6915E+3	640.999E-12	83.7205E+0
-3.25187E+0	31.6915E+3	655.630E-12	83.7651E+0
-3.17711E+0	31.6915E+3	663.007E-12	83.1356E+0
-3.10235E+0	31.6915E+3	677.071E-12	83.4304E+0
-3.02760E+0	31.6915E+3	678.528E-12	82.7892E+0
-2.95284E+0	31.6915E+3	697.220E-12	82.1778E+0
-2.87809E+0	31.6915E+3	709.365E-12	82.1761E+0
-2.80333E+0	31.6915E+3	722.823E-12	82.4329E+0
-2.72858E+0	31.6915E+3	737.912E-12	82.3792E+0
-2.65382E+0	31.6915E+3	744.516E-12	81.7242E+0
-2.57907E+0	31.6915E+3	758.758E-12	81.5347E+0
-2.50431E+0	31.6915E+3	780.177E-12	81.2198E+0
-2.42956E+0	31.6915E+3	796.889E-12	80.7741E+0
-2.35480E+0	31.6915E+3	820.322E-12	80.4751E+0
-2.28005E+0	31.6915E+3	834.882E-12	80.1301E+0
-2.20529E+0	31.6915E+3	847.813E-12	79.7841E+0
-2.13053E+0	31.6915E+3	866.905E-12	79.5844E+0
-2.05578E+0	31.6915E+3	887.859E-12	79.2893E+0
-1.98102E+0	31.6915E+3	907.286E-12	78.8562E+0
-1.90627E+0	31.6915E+3	934.549E-12	78.1474E+0
-1.83151E+0	31.6915E+3	952.909E-12	78.0454E+0
-1.75676E+0	31.6915E+3	975.714E-12	77.4333E+0
-1.68200E+0	31.6915E+3	999.839E-12	77.0492E+0
-1.60725E+0	31.6915E+3	1.03145E-9	76.1133E+0
-1.53249E+0	31.6915E+3	1.04972E-9	75.8570E+0
-1.45774E+0	31.6915E+3	1.08749E-9	75.3626E+0
-1.38298E+0	31.6915E+3	1.11323E-9	74.8535E+0
-1.30822E+0	31.6915E+3	1.14268E-9	74.6257E+0
-1.23347E+0	31.6915E+3	1.17076E-9	73.4276E+0
-1.15871E+0	31.6915E+3	1.21298E-9	72.9770E+0
-1.08396E+0	31.6915E+3	1.24614E-9	72.1391E+0
-1.00920E+0	31.6915E+3	1.28467E-9	71.3232E+0
-934.447E-3	31.6915E+3	1.30546E-9	70.0734E+0
-859.692E-3	31.6915E+3	1.34347E-9	69.5298E+0
-784.937E-3	31.6915E+3	1.40896E-9	68.6302E+0
-710.181E-3	31.6915E+3	1.44431E-9	67.4408E+0
-635.426E-3	31.6915E+3	1.49102E-9	66.9162E+0
-560.670E-3	31.6915E+3	1.55311E-9	65.6515E+0
-485.915E-3	31.6915E+3	1.59782E-9	64.6533E+0
-411.160E-3	31.6915E+3	1.66043E-9	63.3140E+0
-336.404E-3	31.6915E+3	1.72431E-9	62.0353E+0
-261.649E-3	31.6915E+3	1.79640E-9	60.5310E+0
-186.894E-3	31.6915E+3	1.86230E-9	59.1269E+0
-112.138E-3	31.6915E+3	1.93811E-9	57.2744E+0
-37.3829E-3	31.6915E+3	2.01931E-9	55.4597E+0
37.3725E-3	31.6915E+3	2.11335E-9	53.4035E+0
112.128E-3	31.6915E+3	2.20014E-9	51.5570E+0
186.883E-3	31.6915E+3	2.29775E-9	49.2651E+0
261.639E-3	31.6915E+3	2.38831E-9	46.6328E+0
336.394E-3	31.6915E+3	2.49953E-9	43.9021E+0
411.149E-3	31.6915E+3	2.60815E-9	40.8016E+0
485.905E-3	31.6915E+3	2.71523E-9	37.6432E+0
560.660E-3	31.6915E+3	2.81761E-9	33.8336E+0
635.416E-3	31.6915E+3	2.92928E-9	30.1224E+0
710.171E-3	31.6915E+3	3.02499E-9	26.2476E+0
784.926E-3	31.6915E+3	3.09457E-9	21.9490E+0
859.682E-3	31.6915E+3	3.13419E-9	17.1653E+0
934.437E-3	31.6915E+3	3.17502E-9	12.4697E+0
1.00919E+0	31.6915E+3	3.19250E-9	7.81855E+0
1.08395E+0	31.6915E+3	3.19120E-9	2.73332E+0
1.15870E+0	31.6915E+3	3.18250E-9	-2.34360E+0
1.23346E+0	31.6915E+3	3.17023E-9	-7.30166E+0
1.30821E+0	31.6915E+3	3.14161E-9	-12.1903E+0
1.38297E+0	31.6915E+3	3.09109E-9	-16.9645E+0
1.45773E+0	31.6915E+3	3.02472E-9	-21.5042E+0
1.53248E+0	31.6915E+3	2.91806E-9	-25.5439E+0
1.60724E+0	31.6915E+3	2.80162E-9	-29.3101E+0
1.68199E+0	31.6915E+3	2.69376E-9	-32.9641E+0
1.75675E+0	31.6915E+3	2.57805E-9	-35.9367E+0
1.83150E+0	31.6915E+3	2.45773E-9	-39.0603E+0
1.90626E+0	31.6915E+3	2.33624E-9	-41.4898E+0
1.98101E+0	31.6915E+3	2.24106E-9	-43.5774E+0
2.05577E+0	31.6915E+3	2.14859E-9	-46.0776E+0
2.13052E+0	31.6915E+3	2.04427E-9	-48.1694E+0
2.20528E+0	31.6915E+3	1.95316E-9	-50.1220E+0
2.28003E+0	31.6915E+3	1.87238E-9	-51.8922E+0
2.35479E+0	31.6915E+3	1.79401E-9	-52.9858E+0
2.42955E+0	31.6915E+3	1.72510E-9	-54.6414E+0
2.50430E+0	31.6915E+3	1.65948E-9	-55.8051E+0
2.57906E+0	31.6915E+3	1.58339E-9	-56.4704E+0
2.65381E+0	31.6915E+3	1.53498E-9	-57.7305E+0
2.72857E+0	31.6915E+3	1.48197E-9	-59.2467E+0
2.80332E+0	31.6915E+3	1.42752E-9	-59.8105E+0
2.87808E+0	31.6915E+3	1.37582E-9	-61.0556E+0
2.95283E+0	31.6915E+3	1.32091E-9	-62.2314E+0
3.02759E+0	31.6915E+3	1.27642E-9	-63.1205E+0
3.10234E+0	31.6915E+3	1.24457E-9	-64.1087E+0
3.17710E+0	31.6915E+3	1.21824E-9	-64.6168E+0
3.25186E+0	31.6915E+3	1.17001E-9	-64.9536E+0
3.32661E+0	31.6915E+3	1.13587E-9	-65.9631E+0
3.40137E+0	31.6915E+3	1.09485E-9	-66.1832E+0
3.47612E+0	31.6915E+3	1.06695E-9	-66.7988E+0
3.55088E+0	31.6915E+3	1.04221E-9	-67.3938E+0
3.62563E+0	31.6915E+3	1.01883E-9	-67.9718E+0
3.70039E+0	31.6915E+3	988.264E-12	-68.2034E+0
3.77514E+0	31.6915E+3	961.307E-12	-68.5511E+0
3.84990E+0	31.6915E+3	941.183E-12	-68.8337E+0
3.92465E+0	31.6915E+3	920.394E-12	-69.1248E+0
3.99941E+0	31.6915E+3	898.428E-12	-69.7973E+0
4.07416E+0	31.6915E+3	875.067E-12	-70.2357E+0
4.14892E+0	31.6915E+3	850.090E-12	-70.8070E+0
4.22368E+0	31.6915E+3	831.585E-12	-70.7804E+0
4.29843E+0	31.6915E+3	811.215E-12	-70.3286E+0
4.37319E+0	31.6915E+3	791.989E-12	-71.4102E+0
4.44794E+0	31.6915E+3	782.310E-12	-71.4052E+0
4.52270E+0	31.6915E+3	761.560E-12	-71.7454E+0
4.59745E+0	31.6915E+3	752.274E-12	-71.8864E+0
4.67221E+0	31.6915E+3	735.334E-12	-72.4964E+0
4.74696E+0	31.6915E+3	731.458E-12	-72.6066E+0
4.82172E+0	31.6915E+3	678.231E-12	-72.0748E+0
4.89647E+0	31.6915E+3	695.027E-12	-72.4714E+0
4.97123E+0	31.6915E+3	686.135E-12	-73.1999E+0
5.04598E+0	31.6915E+3	676.726E-12	-73.7370E+0
5.12074E+0	31.6915E+3	664.480E-12	-73.8536E+0
5.19549E+0	31.6915E+3	658.992E-12	-73.9219E+0
5.27025E+0	31.6915E+3	648.641E-12	-74.2111E+0
5.34500E+0	31.6915E+3	636.759E-12	-74.5171E+0
5.41976E+0	31.6915E+3	624.518E-12	-74.1587E+0
5.49451E+0	31.6915E+3	614.154E-12	-74.8667E+0
5.56927E+0	31.6915E+3	600.350E-12	-75.1100E+0
5.64402E+0	31.6915E+3	596.638E-12	-75.4753E+0
5.71878E+0	31.6915E+3	586.225E-12	-76.0440E+0
5.79353E+0	31.6915E+3	576.274E-12	-75.3494E+0
5.86829E+0	31.6915E+3	567.902E-12	-76.0942E+0
5.94304E+0	31.6915E+3	560.124E-12	-76.1315E+0
6.01780E+0	31.6915E+3	550.210E-12	-75.8491E+0
6.09256E+0	31.6915E+3	546.123E-12	-76.3482E+0
6.16731E+0	31.6915E+3	535.344E-12	-76.1482E+0
6.24207E+0	31.6915E+3	528.660E-12	-76.1597E+0
6.31682E+0	31.6915E+3	519.765E-12	-76.3806E+0
6.39158E+0	31.6915E+3	512.836E-12	-76.8533E+0
6.46633E+0	31.6915E+3	505.868E-12	-76.6783E+0
6.54109E+0	31.6915E+3	504.341E-12	-76.8387E+0
6.61584E+0	31.6915E+3	496.418E-12	-77.0499E+0
6.69060E+0	31.6915E+3	488.197E-12	-77.1481E+0
6.76535E+0	31.6915E+3	481.413E-12	-76.8213E+0
6.84011E+0	31.6915E+3	475.671E-12	-77.1842E+0
6.91486E+0	31.6915E+3	470.956E-12	-77.1702E+0
6.98962E+0	31.6915E+3	466.534E-12	-77.5372E+0
7.06437E+0	31.6915E+3	455.747E-12	-77.5507E+0
7.13913E+0	31.6915E+3	451.201E-12	-77.5510E+0
7.21388E+0	31.6915E+3	446.754E-12	-77.8374E+0
7.28864E+0	31.6915E+3	445.288E-12	-77.9351E+0
7.36339E+0	31.6915E+3	434.827E-12	-77.5121E+0
7.43815E+0	31.6915E+3	431.583E-12	-77.6388E+0
7.51290E+0	31.6915E+3	426.109E-12	-78.0341E+0
7.58766E+0	31.6915E+3	422.360E-12	-77.8080E+0
7.66241E+0	31.6915E+3	419.350E-12	-78.1902E+0
7.73717E+0	31.6915E+3	412.358E-12	-78.4468E+0
7.81192E+0	31.6915E+3	407.953E-12	-78.2719E+0
7.88668E+0	31.6915E+3	407.344E-12	-78.5754E+0
7.96143E+0	31.6915E+3	399.236E-12	-78.4402E+0
8.03619E+0	31.6915E+3	396.088E-12	-78.9669E+0
8.11095E+0	31.6915E+3	390.639E-12	-78.4925E+0
8.18570E+0	31.6915E+3	389.835E-12	-78.6772E+0
8.26046E+0	31.6915E+3	385.618E-12	-78.9732E+0
8.33521E+0	31.6915E+3	379.288E-12	-78.8493E+0
8.40997E+0	31.6915E+3	376.332E-12	-79.3037E+0
8.48472E+0	31.6915E+3	371.424E-12	-78.8750E+0
8.55948E+0	31.6915E+3	369.269E-12	-79.4197E+0
8.63424E+0	31.6915E+3	365.419E-12	-79.2923E+0
8.70899E+0	31.6915E+3	361.549E-12	-78.8843E+0
8.78375E+0	31.6915E+3	358.943E-12	-79.0359E+0
8.85850E+0	31.6915E+3	353.098E-12	-79.4158E+0
8.93326E+0	31.6915E+3	350.382E-12	-78.9210E+0
9.00801E+0	31.6915E+3	348.272E-12	-78.9328E+0
9.08277E+0	31.6915E+3	342.406E-12	-78.9745E+0
9.15753E+0	31.6915E+3	340.939E-12	-79.4814E+0
9.23228E+0	31.6915E+3	337.674E-12	-79.1964E+0
9.30704E+0	31.6915E+3	337.631E-12	-79.5656E+0
9.38179E+0	31.6915E+3	333.303E-12	-79.9310E+0
9.45655E+0	31.6915E+3	323.288E-12	-78.9635E+0
9.53130E+0	31.6915E+3	325.174E-12	-79.6559E+0
9.60606E+0	31.6915E+3	322.086E-12	-80.0401E+0
9.68081E+0	31.6915E+3	319.725E-12	-79.9504E+0
9.75557E+0	31.6915E+3	319.957E-12	-80.1152E+0
9.83033E+0	31.6915E+3	316.154E-12	-79.8200E+0
9.90508E+0	31.6915E+3	311.982E-12	-79.9403E+0
9.97984E+0	31.6915E+3	310.124E-12	-80.3364E+0
10.0546E+0	31.6915E+3	309.054E-12	-80.3570E+0
10.1293E+0	31.6915E+3	306.898E-12	-79.8580E+0
10.2041E+0	31.6915E+3	304.263E-12	-79.7515E+0
10.2789E+0	31.6915E+3	300.534E-12	-80.0186E+0
10.3536E+0	31.6915E+3	296.684E-12	-80.0338E+0
10.4284E+0	31.6915E+3	294.336E-12	-80.1005E+0
10.5031E+0	31.6915E+3	291.286E-12	-79.9507E+0
10.5779E+0	31.6915E+3	290.401E-12	-79.8631E+0
10.6526E+0	31.6915E+3	289.023E-12	-80.3559E+0
10.7274E+0	31.6915E+3	285.450E-12	-80.4198E+0
10.8021E+0	31.6915E+3	285.946E-12	-80.8395E+0
10.8769E+0	31.6915E+3	281.325E-12	-81.0057E+0
10.9517E+0	31.6915E+3	279.663E-12	-80.6192E+0
11.0264E+0	31.6915E+3	276.919E-12	-80.5255E+0
11.1012E+0	31.6915E+3	277.507E-12	-80.7782E+0
11.1759E+0	31.6915E+3	274.443E-12	-80.8344E+0
11.2507E+0	31.6915E+3	270.212E-12	-80.5915E+0
11.3254E+0	31.6915E+3	269.970E-12	-80.3809E+0
11.4002E+0	31.6915E+3	268.656E-12	-80.6508E+0
11.4750E+0	31.6915E+3	266.722E-12	-80.8720E+0
11.5497E+0	31.6915E+3	265.252E-12	-80.9362E+0
11.6245E+0	31.6915E+3	263.343E-12	-80.8834E+0
11.6992E+0	31.6915E+3	261.131E-12	-80.9365E+0
11.7740E+0	31.6915E+3	258.352E-12	-80.9519E+0
11.8487E+0	31.6915E+3	257.858E-12	-80.8718E+0
11.9235E+0	31.6915E+3	254.416E-12	-81.0153E+0
11.9982E+0	31.6915E+3	253.587E-12	-80.7800E+0
12.0730E+0	31.6915E+3	250.935E-12	-81.2567E+0
12.1478E+0	31.6915E+3	251.572E-12	-80.4878E+0
12.2225E+0	31.6915E+3	247.982E-12	-81.1488E+0
12.2973E+0	31.6915E+3	246.447E-12	-81.0581E+0
12.3720E+0	31.6915E+3	246.321E-12	-80.8642E+0
12.4468E+0	31.6915E+3	243.793E-12	-81.4006E+0
12.5215E+0	31.6915E+3	242.067E-12	-80.8545E+0
12.5963E+0	31.6915E+3	240.925E-12	-81.0040E+0
12.6710E+0	31.6915E+3	238.085E-12	-81.0562E+0
12.7458E+0	31.6915E+3	237.938E-12	-81.2333E+0
12.8206E+0	31.6915E+3	238.142E-12	-81.0775E+0
12.8953E+0	31.6915E+3	235.993E-12	-81.3160E+0
12.9701E+0	31.6915E+3	232.898E-12	-81.1807E+0
13.0448E+0	31.6915E+3	232.162E-12	-81.3015E+0
13.1196E+0	31.6915E+3	231.045E-12	-81.1545E+0
13.1943E+0	31.6915E+3	227.597E-12	-81.1790E+0
13.2691E+0	31.6915E+3	228.278E-12	-81.3461E+0
13.3438E+0	31.6915E+3	229.400E-12	-81.4824E+0
13.4186E+0	31.6915E+3	224.635E-12	-81.4663E+0
13.4934E+0	31.6915E+3	223.396E-12	-81.4466E+0
13.5681E+0	31.6915E+3	223.564E-12	-81.5612E+0
13.6429E+0	31.6915E+3	219.361E-12	-81.4905E+0
13.7176E+0	31.6915E+3	219.109E-12	-81.5465E+0
13.7924E+0	31.6915E+3	218.905E-12	-81.5098E+0
13.8671E+0	31.6915E+3	215.854E-12	-81.1171E+0
13.9419E+0	31.6915E+3	215.114E-12	-81.3418E+0
14.0166E+0	31.6915E+3	214.787E-12	-81.3988E+0
14.0914E+0	31.6915E+3	212.680E-12	-81.5903E+0
14.1662E+0	31.6915E+3	212.492E-12	-81.6007E+0
14.2409E+0	31.6915E+3	210.566E-12	-81.4107E+0
14.3157E+0	31.6915E+3	210.538E-12	-81.2336E+0
14.3904E+0	31.6915E+3	207.857E-12	-81.4670E+0
14.4652E+0	31.6915E+3	208.397E-12	-81.4035E+0
14.5399E+0	31.6915E+3	206.348E-12	-81.6591E+0
14.6147E+0	31.6915E+3	204.997E-12	-81.3187E+0
14.6894E+0	31.6915E+3	202.745E-12	-81.6143E+0
14.7642E+0	31.6915E+3	204.150E-12	-81.8000E+0
14.8390E+0	31.6915E+3	203.017E-12	-81.6702E+0
14.9137E+0	31.6915E+3	201.188E-12	-81.6233E+0
14.9885E+0	31.6915E+3	199.976E-12	-81.8413E+0
15.0632E+0	31.6915E+3	198.809E-12	-81.4368E+0
15.1380E+0	31.6915E+3	197.254E-12	-81.3481E+0
15.2127E+0	31.6915E+3	197.156E-12	-81.8556E+0
15.2875E+0	31.6915E+3	195.736E-12	-81.5290E+0
15.3622E+0	31.6915E+3	194.004E-12	-81.9575E+0
15.4370E+0	31.6915E+3	192.577E-12	-81.7303E+0
15.5118E+0	31.6915E+3	191.934E-12	-81.9927E+0
15.5865E+0	31.6915E+3	191.696E-12	-81.8545E+0
15.6613E+0	31.6915E+3	190.815E-12	-81.9653E+0
15.7360E+0	31.6915E+3	189.718E-12	-82.3476E+0
15.8108E+0	31.6915E+3	189.670E-12	-81.8118E+0
15.8855E+0	31.6915E+3	187.092E-12	-81.5682E+0
15.9603E+0	31.6915E+3	186.786E-12	-81.7518E+0
16.0350E+0	31.6915E+3	186.013E-12	-81.6755E+0
16.1098E+0	31.6915E+3	183.768E-12	-81.6225E+0
16.1846E+0	31.6915E+3	183.161E-12	-82.0423E+0
16.2593E+0	31.6915E+3	182.512E-12	-82.1382E+0
16.3341E+0	31.6915E+3	183.834E-12	-81.8479E+0
16.4088E+0	31.6915E+3	181.691E-12	-82.0891E+0
16.4836E+0	31.6915E+3	179.927E-12	-82.0582E+0
16.5583E+0	31.6915E+3	179.237E-12	-82.1518E+0
16.6331E+0	31.6915E+3	178.301E-12	-81.8786E+0
16.7078E+0	31.6915E+3	178.044E-12	-82.1148E+0
16.7826E+0	31.6915E+3	178.328E-12	-81.6023E+0
16.8573E+0	31.6915E+3	176.745E-12	-82.0175E+0
16.9321E+0	31.6915E+3	175.597E-12	-82.5653E+0
17.0069E+0	31.6915E+3	174.552E-12	-82.2552E+0
17.0816E+0	31.6915E+3	172.873E-12	-81.8990E+0
17.1564E+0	31.6915E+3	173.162E-12	-81.9245E+0
17.2311E+0	31.6915E+3	173.006E-12	-82.2405E+0
17.3059E+0	31.6915E+3	172.387E-12	-82.1791E+0
17.3806E+0	31.6915E+3	170.766E-12	-82.1864E+0
17.4554E+0	31.6915E+3	169.959E-12	-81.6579E+0
17.5301E+0	31.6915E+3	169.536E-12	-81.9519E+0
17.6049E+0	31.6915E+3	168.185E-12	-82.3083E+0
17.6796E+0	31.6915E+3	168.028E-12	-82.0220E+0
17.7544E+0	31.6915E+3	167.077E-12	-82.1078E+0
17.8292E+0	31.6915E+3	165.384E-12	-82.4514E+0
17.9039E+0	31.6915E+3	165.378E-12	-81.7764E+0
17.9787E+0	31.6915E+3	164.785E-12	-82.3221E+0
18.0534E+0	31.6915E+3	162.975E-12	-82.0751E+0
18.1282E+0	31.6915E+3	163.153E-12	-82.2867E+0
18.2029E+0	31.6915E+3	161.216E-12	-82.0706E+0
18.2777E+0	31.6915E+3	161.578E-12	-81.8799E+0
18.3524E+0	31.6915E+3	161.406E-12	-82.2711E+0
18.4272E+0	31.6915E+3	160.826E-12	-81.9099E+0
18.5020E+0	31.6915E+3	160.137E-12	-82.4744E+0
18.5767E+0	31.6915E+3	158.952E-12	-82.2216E+0
18.6515E+0	31.6915E+3	158.600E-12	-82.7250E+0
18.7262E+0	31.6915E+3	156.683E-12	-82.5215E+0
18.8010E+0	31.6915E+3	157.677E-12	-81.9618E+0
18.8757E+0	31.6915E+3	156.454E-12	-82.3190E+0
18.9505E+0	31.6915E+3	155.618E-12	-82.5931E+0
19.0252E+0	31.6915E+3	154.394E-12	-81.9911E+0
19.1000E+0	31.6915E+3	154.872E-12	-82.3861E+0
